#No.   Fermi energy(eV)   SHC((hbar/e)*S/cm)
   1     6.000000    0.00000000E+00
   2     6.100000    0.00000000E+00
   3     6.200000    0.00000000E+00
   4     6.300000    0.00000000E+00
   5     6.400000    0.00000000E+00
   6     6.500000    0.00000000E+00
   7     6.600000    0.00000000E+00
   8     6.700000    0.00000000E+00
   9     6.800000    0.00000000E+00
  10     6.900000    0.00000000E+00
  11     7.000000    0.00000000E+00
  12     7.100000    0.00000000E+00
  13     7.200000    0.00000000E+00
  14     7.300000    0.00000000E+00
  15     7.400000    0.00000000E+00
  16     7.500000    0.00000000E+00
  17     7.600000    0.00000000E+00
  18     7.700000   -0.32734335E-03
  19     7.800000   -0.32734335E-03
  20     7.900000   -0.32734335E-03
  21     8.000000   -0.39692767E-01
  22     8.100000   -0.71150582E-01
  23     8.200000   -0.71150582E-01
  24     8.300000   -0.71150582E-01
  25     8.400000   -0.39190876E+01
  26     8.500000   -0.24567482E+00
  27     8.600000   -0.24567482E+00
  28     8.700000   -0.64323805E+00
  29     8.800000   -0.82860489E+00
  30     8.900000   -0.82860489E+00
  31     9.000000   -0.82860489E+00
  32     9.100000   -0.92692707E+00
  33     9.200000   -0.16210295E+02
  34     9.300000   -0.15517965E+01
  35     9.400000   -0.26562263E+01
  36     9.500000   -0.66003874E+01
  37     9.600000   -0.12652506E+02
  38     9.700000   -0.99510829E+01
  39     9.800000   -0.54749159E+01
  40     9.900000   -0.57378632E+01
  41    10.000000   -0.10158144E+02
  42    10.100000   -0.20933824E+02
  43    10.200000   -0.28351899E+02
  44    10.300000   -0.13928969E+02
  45    10.400000   -0.15898212E+02
  46    10.500000   -0.28189995E+02
  47    10.600000   -0.38515581E+02
  48    10.700000   -0.44560492E+02
  49    10.800000   -0.55136555E+02
  50    10.900000   -0.72736100E+02
  51    11.000000   -0.11439146E+03
  52    11.100000   -0.57559523E+02
  53    11.200000   -0.10056052E+03
  54    11.300000   -0.61995206E+02
  55    11.400000   -0.10093825E+03
  56    11.500000   -0.13890085E+03
  57    11.600000   -0.15790677E+03
  58    11.700000   -0.21547834E+03
  59    11.800000   -0.16836701E+03
  60    11.900000   -0.20115716E+03
  61    12.000000   -0.27482710E+03
  62    12.100000   -0.33596598E+03
  63    12.200000   -0.34479083E+03
  64    12.300000   -0.30252352E+03
  65    12.400000   -0.31633979E+03
  66    12.500000   -0.34242694E+03
  67    12.600000   -0.40295529E+03
  68    12.700000   -0.40920871E+03
  69    12.800000   -0.44661009E+03
  70    12.900000   -0.58537518E+03
  71    13.000000   -0.61435779E+03
  72    13.100000   -0.66678998E+03
  73    13.200000   -0.56705482E+03
  74    13.300000   -0.53681057E+03
  75    13.400000   -0.43206798E+03
  76    13.500000   -0.54175293E+03
  77    13.600000   -0.65158010E+03
  78    13.700000   -0.82719378E+03
  79    13.800000   -0.96019873E+03
  80    13.900000   -0.19652294E+04
  81    14.000000   -0.20518278E+04
  82    14.100000   -0.19856081E+04
  83    14.200000   -0.18107063E+04
  84    14.300000   -0.19103740E+04
  85    14.400000   -0.18177112E+04
  86    14.500000   -0.25011608E+04
  87    14.600000   -0.26028094E+04
  88    14.700000   -0.26189785E+04
  89    14.800000    0.11270890E+06
  90    14.900000    0.11271088E+06
  91    15.000000   -0.10913734E+04
  92    15.100000   -0.11810024E+04
  93    15.200000   -0.11863263E+04
  94    15.300000   -0.10450772E+04
  95    15.400000   -0.11158943E+04
  96    15.500000   -0.10450750E+04
  97    15.600000   -0.18459755E+04
  98    15.700000   -0.17811991E+04
  99    15.800000   -0.16181939E+04
 100    15.900000   -0.15811775E+04
 101    16.000000   -0.15547171E+04
 102    16.100000   -0.15401603E+04
 103    16.200000   -0.39874225E+03
 104    16.300000   -0.29137505E+03
 105    16.400000   -0.19568684E+03
 106    16.500000   -0.10093338E+03
 107    16.600000    0.27433608E+02
 108    16.700000   -0.27245934E+02
 109    16.800000    0.22213735E+02
 110    16.900000    0.34847471E+02
 111    17.000000    0.69805402E+02
 112    17.100000   -0.34789070E+04
 113    17.200000   -0.31682984E+04
 114    17.300000   -0.31076790E+04
 115    17.400000   -0.32001468E+04
 116    17.500000   -0.32130258E+04
 117    17.600000   -0.38945377E+04
 118    17.700000    0.13728821E+04
 119    17.800000    0.12762782E+04
 120    17.900000    0.16330502E+04
 121    18.000000    0.14463341E+04
 122    18.100000    0.16670308E+04
 123    18.200000    0.18377796E+04
 124    18.300000    0.18842120E+04
 125    18.400000    0.19570308E+04
 126    18.500000    0.18805214E+04
 127    18.600000    0.17785803E+04
 128    18.700000    0.15050749E+04
 129    18.800000    0.16325208E+04
 130    18.900000    0.15819954E+04
 131    19.000000    0.15647693E+04
 132    19.100000    0.15673475E+04
 133    19.200000    0.15251509E+04
 134    19.300000    0.14667942E+04
 135    19.400000    0.15745765E+04
 136    19.500000    0.13570986E+04
 137    19.600000    0.12091842E+04
 138    19.700000    0.12150069E+04
 139    19.800000    0.12268213E+04
 140    19.900000    0.11133355E+04
 141    20.000000    0.84758157E+03
 142    20.100000    0.86595901E+03
 143    20.200000    0.98839354E+03
 144    20.300000    0.91203814E+03
 145    20.400000    0.87037441E+03
 146    20.500000    0.86769889E+03
 147    20.600000    0.90027520E+03
 148    20.700000    0.92014376E+03
 149    20.800000    0.89139779E+03
 150    20.900000    0.82405299E+03
 151    21.000000    0.68286530E+03
 152    21.100000    0.78423074E+03
 153    21.200000    0.70729193E+03
 154    21.300000    0.72586619E+03
 155    21.400000    0.77719704E+03
 156    21.500000    0.72638220E+03
 157    21.600000    0.72684335E+03
 158    21.700000    0.64568339E+03
 159    21.800000    0.73181151E+03
 160    21.900000    0.72798862E+03
 161    22.000000    0.41699890E+03
 162    22.100000    0.70368888E+03
 163    22.200000    0.73185419E+03
 164    22.300000    0.69949577E+03
 165    22.400000    0.70340490E+03
 166    22.500000    0.68959898E+03
 167    22.600000    0.69014872E+03
 168    22.700000    0.52097912E+03
 169    22.800000    0.48482335E+03
 170    22.900000    0.48686192E+03
 171    23.000000    0.39144362E+03
 172    23.100000    0.46449054E+03
 173    23.200000    0.52460077E+03
 174    23.300000    0.48970263E+03
 175    23.400000    0.48121841E+03
 176    23.500000    0.52534209E+03
 177    23.600000    0.45893319E+03
 178    23.700000    0.43824421E+03
 179    23.800000    0.44417254E+03
 180    23.900000    0.39591974E+03
 181    24.000000    0.47280490E+03
 182    24.100000    0.40138223E+03
 183    24.200000    0.34550060E+03
 184    24.300000    0.36092869E+03
 185    24.400000    0.39186788E+03
 186    24.500000    0.27267492E+03
 187    24.600000    0.44772840E+03
 188    24.700000    0.31438173E+03
 189    24.800000    0.61566504E+03
 190    24.900000    0.83810304E+03
 191    25.000000    0.71177272E+03
 192    25.100000    0.69348104E+03
 193    25.200000    0.38638867E+03
 194    25.300000    0.85957351E+03
 195    25.400000    0.65605080E+03
 196    25.500000    0.65064278E+03
 197    25.600000    0.66913481E+03
 198    25.700000    0.47287848E+03
 199    25.800000    0.60679551E+03
 200    25.900000    0.64201349E+03
 201    26.000000    0.43558483E+03
